#  E (eV)   dos(E)     Int dos(E) EFermi =    0.910 eV
 -18.652  0.1383E+00  0.2188E-02
 -18.642  0.1782E+00  0.3773E-02
 -18.632  0.2143E+00  0.5739E-02
 -18.622  0.2468E+00  0.8047E-02
 -18.612  0.2756E+00  0.1066E-01
 -18.602  0.3006E+00  0.1355E-01
 -18.592  0.3219E+00  0.1666E-01
 -18.582  0.3395E+00  0.1997E-01
 -18.572  0.3534E+00  0.2344E-01
 -18.562  0.3636E+00  0.2703E-01
 -18.552  0.3701E+00  0.3070E-01
 -18.542  0.3741E+00  0.3442E-01
 -18.532  0.3914E+00  0.3830E-01
 -18.522  0.3440E+00  0.4203E-01
 -18.512  0.2726E+00  0.4502E-01
 -18.502  0.2745E+00  0.4776E-01
 -18.492  0.2764E+00  0.5051E-01
 -18.482  0.2782E+00  0.5328E-01
 -18.472  0.2801E+00  0.5608E-01
 -18.462  0.2820E+00  0.5889E-01
 -18.452  0.2838E+00  0.6172E-01
 -18.442  0.2857E+00  0.6456E-01
 -18.432  0.2876E+00  0.6743E-01
 -18.422  0.2894E+00  0.7031E-01
 -18.412  0.2912E+00  0.7322E-01
 -18.402  0.2931E+00  0.7614E-01
 -18.392  0.2949E+00  0.7908E-01
 -18.382  0.2967E+00  0.8204E-01
 -18.372  0.2985E+00  0.8501E-01
 -18.362  0.3003E+00  0.8801E-01
 -18.352  0.3021E+00  0.9102E-01
 -18.342  0.3039E+00  0.9405E-01
 -18.332  0.3057E+00  0.9710E-01
 -18.322  0.3075E+00  0.1002E+00
 -18.312  0.3092E+00  0.1032E+00
 -18.302  0.3110E+00  0.1063E+00
 -18.292  0.3128E+00  0.1095E+00
 -18.282  0.3145E+00  0.1126E+00
 -18.272  0.3163E+00  0.1158E+00
 -18.262  0.3180E+00  0.1189E+00
 -18.252  0.3197E+00  0.1221E+00
 -18.242  0.3215E+00  0.1253E+00
 -18.232  0.3232E+00  0.1285E+00
 -18.222  0.3249E+00  0.1318E+00
 -18.212  0.3266E+00  0.1350E+00
 -18.202  0.3284E+00  0.1383E+00
 -18.192  0.3303E+00  0.1416E+00
 -18.182  0.3287E+00  0.1449E+00
 -18.172  0.3249E+00  0.1482E+00
 -18.162  0.3214E+00  0.1514E+00
 -18.152  0.3181E+00  0.1546E+00
 -18.142  0.3151E+00  0.1578E+00
 -18.132  0.3123E+00  0.1609E+00
 -18.122  0.3098E+00  0.1640E+00
 -18.112  0.3075E+00  0.1671E+00
 -18.102  0.3054E+00  0.1702E+00
 -18.092  0.3037E+00  0.1732E+00
 -18.082  0.3021E+00  0.1762E+00
 -18.072  0.3008E+00  0.1793E+00
 -18.062  0.2998E+00  0.1823E+00
 -18.052  0.2990E+00  0.1853E+00
 -18.042  0.2982E+00  0.1882E+00
 -18.032  0.2970E+00  0.1912E+00
 -18.022  0.2953E+00  0.1942E+00
 -18.012  0.2960E+00  0.1971E+00
 -18.002  0.2966E+00  0.2001E+00
 -17.992  0.2973E+00  0.2031E+00
 -17.982  0.2979E+00  0.2060E+00
 -17.972  0.2985E+00  0.2090E+00
 -17.962  0.2992E+00  0.2120E+00
 -17.952  0.2998E+00  0.2150E+00
 -17.942  0.3004E+00  0.2180E+00
 -17.932  0.3011E+00  0.2210E+00
 -17.922  0.3017E+00  0.2240E+00
 -17.912  0.3023E+00  0.2271E+00
 -17.902  0.3030E+00  0.2301E+00
 -17.892  0.3036E+00  0.2331E+00
 -17.882  0.3042E+00  0.2362E+00
 -17.872  0.3049E+00  0.2392E+00
 -17.862  0.3055E+00  0.2423E+00
 -17.852  0.3061E+00  0.2453E+00
 -17.842  0.3067E+00  0.2484E+00
 -17.832  0.3074E+00  0.2514E+00
 -17.822  0.3080E+00  0.2545E+00
 -17.812  0.3086E+00  0.2576E+00
 -17.802  0.3093E+00  0.2607E+00
 -17.792  0.3099E+00  0.2638E+00
 -17.782  0.3105E+00  0.2669E+00
 -17.772  0.3111E+00  0.2700E+00
 -17.762  0.3118E+00  0.2731E+00
 -17.752  0.3124E+00  0.2762E+00
 -17.742  0.3130E+00  0.2794E+00
 -17.732  0.3136E+00  0.2825E+00
 -17.722  0.3143E+00  0.2856E+00
 -17.712  0.3149E+00  0.2888E+00
 -17.702  0.3155E+00  0.2919E+00
 -17.692  0.3161E+00  0.2951E+00
 -17.682  0.3167E+00  0.2983E+00
 -17.672  0.3174E+00  0.3014E+00
 -17.662  0.3180E+00  0.3046E+00
 -17.652  0.3186E+00  0.3078E+00
 -17.642  0.3192E+00  0.3110E+00
 -17.632  0.3198E+00  0.3142E+00
 -17.622  0.3205E+00  0.3174E+00
 -17.612  0.3211E+00  0.3206E+00
 -17.602  0.3217E+00  0.3238E+00
 -17.592  0.3223E+00  0.3270E+00
 -17.582  0.3229E+00  0.3302E+00
 -17.572  0.3235E+00  0.3335E+00
 -17.562  0.3242E+00  0.3367E+00
 -17.552  0.3240E+00  0.3400E+00
 -17.542  0.3173E+00  0.3432E+00
 -17.532  0.3089E+00  0.3463E+00
 -17.522  0.3087E+00  0.3494E+00
 -17.512  0.3085E+00  0.3525E+00
 -17.502  0.3082E+00  0.3555E+00
 -17.492  0.3080E+00  0.3586E+00
 -17.482  0.3078E+00  0.3617E+00
 -17.472  0.3076E+00  0.3648E+00
 -17.462  0.3075E+00  0.3679E+00
 -17.452  0.3073E+00  0.3709E+00
 -17.442  0.3071E+00  0.3740E+00
 -17.432  0.3070E+00  0.3771E+00
 -17.422  0.3069E+00  0.3801E+00
 -17.412  0.3068E+00  0.3832E+00
 -17.402  0.3067E+00  0.3863E+00
 -17.392  0.3066E+00  0.3893E+00
 -17.382  0.3065E+00  0.3924E+00
 -17.372  0.3064E+00  0.3955E+00
 -17.362  0.3064E+00  0.3985E+00
 -17.352  0.3063E+00  0.4016E+00
 -17.342  0.3063E+00  0.4047E+00
 -17.332  0.3063E+00  0.4077E+00
 -17.322  0.3063E+00  0.4108E+00
 -17.312  0.3063E+00  0.4139E+00
 -17.302  0.3063E+00  0.4169E+00
 -17.292  0.3063E+00  0.4200E+00
 -17.282  0.3064E+00  0.4230E+00
 -17.272  0.3064E+00  0.4261E+00
 -17.262  0.3065E+00  0.4292E+00
 -17.252  0.3066E+00  0.4322E+00
 -17.242  0.3067E+00  0.4353E+00
 -17.232  0.3068E+00  0.4384E+00
 -17.222  0.3068E+00  0.4414E+00
 -17.212  0.3068E+00  0.4445E+00
 -17.202  0.3066E+00  0.4476E+00
 -17.192  0.3069E+00  0.4506E+00
 -17.182  0.3073E+00  0.4537E+00
 -17.172  0.3076E+00  0.4568E+00
 -17.162  0.3080E+00  0.4599E+00
 -17.152  0.3083E+00  0.4629E+00
 -17.142  0.3087E+00  0.4660E+00
 -17.132  0.3090E+00  0.4691E+00
 -17.122  0.3094E+00  0.4722E+00
 -17.112  0.3097E+00  0.4753E+00
 -17.102  0.3101E+00  0.4784E+00
 -17.092  0.3104E+00  0.4815E+00
 -17.082  0.3107E+00  0.4846E+00
 -17.072  0.3111E+00  0.4877E+00
 -17.062  0.3114E+00  0.4908E+00
 -17.052  0.3118E+00  0.4940E+00
 -17.042  0.3121E+00  0.4971E+00
 -17.032  0.3125E+00  0.5002E+00
 -17.022  0.3128E+00  0.5033E+00
 -17.012  0.3132E+00  0.5065E+00
 -17.002  0.3135E+00  0.5096E+00
 -16.992  0.3139E+00  0.5127E+00
 -16.982  0.3142E+00  0.5159E+00
 -16.972  0.3145E+00  0.5190E+00
 -16.962  0.3149E+00  0.5222E+00
 -16.952  0.3152E+00  0.5253E+00
 -16.942  0.3156E+00  0.5285E+00
 -16.932  0.3159E+00  0.5316E+00
 -16.922  0.3163E+00  0.5348E+00
 -16.912  0.3166E+00  0.5379E+00
 -16.902  0.3170E+00  0.5411E+00
 -16.892  0.3173E+00  0.5443E+00
 -16.882  0.3177E+00  0.5475E+00
 -16.872  0.3180E+00  0.5506E+00
 -16.862  0.3183E+00  0.5538E+00
 -16.852  0.3187E+00  0.5570E+00
 -16.842  0.3190E+00  0.5602E+00
 -16.832  0.3194E+00  0.5634E+00
 -16.822  0.3197E+00  0.5666E+00
 -16.812  0.3201E+00  0.5698E+00
 -16.802  0.3204E+00  0.5730E+00
 -16.792  0.3207E+00  0.5762E+00
 -16.782  0.3211E+00  0.5794E+00
 -16.772  0.3214E+00  0.5826E+00
 -16.762  0.3218E+00  0.5858E+00
 -16.752  0.3221E+00  0.5890E+00
 -16.742  0.3224E+00  0.5923E+00
 -16.732  0.3228E+00  0.5955E+00
 -16.722  0.3212E+00  0.5987E+00
 -16.712  0.3203E+00  0.6019E+00
 -16.702  0.3193E+00  0.6051E+00
 -16.692  0.3185E+00  0.6083E+00
 -16.682  0.3177E+00  0.6115E+00
 -16.672  0.3169E+00  0.6147E+00
 -16.662  0.3162E+00  0.6178E+00
 -16.652  0.3155E+00  0.6210E+00
 -16.642  0.3149E+00  0.6241E+00
 -16.632  0.3144E+00  0.6273E+00
 -16.622  0.3139E+00  0.6304E+00
 -16.612  0.3134E+00  0.6336E+00
 -16.602  0.3130E+00  0.6367E+00
 -16.592  0.3127E+00  0.6398E+00
 -16.582  0.3123E+00  0.6429E+00
 -16.572  0.3117E+00  0.6461E+00
 -16.562  0.3101E+00  0.6492E+00
 -16.552  0.3102E+00  0.6523E+00
 -16.542  0.3103E+00  0.6554E+00
 -16.532  0.3104E+00  0.6585E+00
 -16.522  0.3105E+00  0.6616E+00
 -16.512  0.3106E+00  0.6647E+00
 -16.502  0.3107E+00  0.6678E+00
 -16.492  0.3108E+00  0.6709E+00
 -16.482  0.3109E+00  0.6740E+00
 -16.472  0.3110E+00  0.6771E+00
 -16.462  0.3112E+00  0.6802E+00
 -16.452  0.3113E+00  0.6833E+00
 -16.442  0.3114E+00  0.6865E+00
 -16.432  0.3115E+00  0.6896E+00
 -16.422  0.3117E+00  0.6927E+00
 -16.412  0.3118E+00  0.6958E+00
 -16.402  0.3119E+00  0.6989E+00
 -16.392  0.3120E+00  0.7020E+00
 -16.382  0.3122E+00  0.7052E+00
 -16.372  0.3123E+00  0.7083E+00
 -16.362  0.3125E+00  0.7114E+00
 -16.352  0.3126E+00  0.7145E+00
 -16.342  0.3127E+00  0.7177E+00
 -16.332  0.3129E+00  0.7208E+00
 -16.322  0.3130E+00  0.7239E+00
 -16.312  0.3132E+00  0.7271E+00
 -16.302  0.3133E+00  0.7302E+00
 -16.292  0.3135E+00  0.7333E+00
 -16.282  0.3136E+00  0.7365E+00
 -16.272  0.3138E+00  0.7396E+00
 -16.262  0.3139E+00  0.7427E+00
 -16.252  0.3141E+00  0.7459E+00
 -16.242  0.3142E+00  0.7490E+00
 -16.232  0.3144E+00  0.7522E+00
 -16.222  0.3146E+00  0.7553E+00
 -16.212  0.3147E+00  0.7584E+00
 -16.202  0.3149E+00  0.7616E+00
 -16.192  0.3151E+00  0.7647E+00
 -16.182  0.3152E+00  0.7679E+00
 -16.172  0.3154E+00  0.7710E+00
 -16.162  0.3156E+00  0.7742E+00
 -16.152  0.3158E+00  0.7774E+00
 -16.142  0.3160E+00  0.7805E+00
 -16.132  0.3161E+00  0.7837E+00
 -16.122  0.3163E+00  0.7868E+00
 -16.112  0.3165E+00  0.7900E+00
 -16.102  0.3167E+00  0.7932E+00
 -16.092  0.3168E+00  0.7963E+00
 -16.082  0.3155E+00  0.7995E+00
 -16.072  0.3153E+00  0.8027E+00
 -16.062  0.3156E+00  0.8058E+00
 -16.052  0.3158E+00  0.8090E+00
 -16.042  0.3161E+00  0.8121E+00
 -16.032  0.3164E+00  0.8153E+00
 -16.022  0.3166E+00  0.8185E+00
 -16.012  0.3169E+00  0.8216E+00
 -16.002  0.3171E+00  0.8248E+00
 -15.992  0.3174E+00  0.8280E+00
 -15.982  0.3176E+00  0.8311E+00
 -15.972  0.3179E+00  0.8343E+00
 -15.962  0.3182E+00  0.8375E+00
 -15.952  0.3184E+00  0.8407E+00
 -15.942  0.3187E+00  0.8439E+00
 -15.932  0.3189E+00  0.8471E+00
 -15.922  0.3192E+00  0.8502E+00
 -15.912  0.3195E+00  0.8534E+00
 -15.902  0.3197E+00  0.8566E+00
 -15.892  0.3200E+00  0.8598E+00
 -15.882  0.3203E+00  0.8630E+00
 -15.872  0.3205E+00  0.8662E+00
 -15.862  0.3208E+00  0.8694E+00
 -15.852  0.3211E+00  0.8727E+00
 -15.842  0.3213E+00  0.8759E+00
 -15.832  0.3216E+00  0.8791E+00
 -15.822  0.3219E+00  0.8823E+00
 -15.812  0.3222E+00  0.8855E+00
 -15.802  0.3224E+00  0.8887E+00
 -15.792  0.3227E+00  0.8920E+00
 -15.782  0.3230E+00  0.8952E+00
 -15.772  0.3233E+00  0.8984E+00
 -15.762  0.3235E+00  0.9017E+00
 -15.752  0.3238E+00  0.9049E+00
 -15.742  0.3241E+00  0.9081E+00
 -15.732  0.3244E+00  0.9114E+00
 -15.722  0.3246E+00  0.9146E+00
 -15.712  0.3249E+00  0.9179E+00
 -15.702  0.3252E+00  0.9211E+00
 -15.692  0.3255E+00  0.9244E+00
 -15.682  0.3258E+00  0.9276E+00
 -15.672  0.3260E+00  0.9309E+00
 -15.662  0.3263E+00  0.9342E+00
 -15.652  0.3266E+00  0.9374E+00
 -15.642  0.3268E+00  0.9407E+00
 -15.632  0.3246E+00  0.9439E+00
 -15.622  0.3207E+00  0.9472E+00
 -15.612  0.3187E+00  0.9504E+00
 -15.602  0.3167E+00  0.9535E+00
 -15.592  0.3168E+00  0.9567E+00
 -15.582  0.3169E+00  0.9599E+00
 -15.572  0.3170E+00  0.9630E+00
 -15.562  0.3171E+00  0.9662E+00
 -15.552  0.3172E+00  0.9694E+00
 -15.542  0.3174E+00  0.9726E+00
 -15.532  0.3175E+00  0.9757E+00
 -15.522  0.3176E+00  0.9789E+00
 -15.512  0.3178E+00  0.9821E+00
 -15.502  0.3179E+00  0.9853E+00
 -15.492  0.3181E+00  0.9884E+00
 -15.482  0.3182E+00  0.9916E+00
 -15.472  0.3184E+00  0.9948E+00
 -15.462  0.3185E+00  0.9980E+00
 -15.452  0.3187E+00  0.1001E+01
 -15.442  0.3189E+00  0.1004E+01
 -15.432  0.3190E+00  0.1008E+01
 -15.422  0.3192E+00  0.1011E+01
 -15.412  0.3194E+00  0.1014E+01
 -15.402  0.3196E+00  0.1017E+01
 -15.392  0.3198E+00  0.1020E+01
 -15.382  0.3200E+00  0.1024E+01
 -15.372  0.3202E+00  0.1027E+01
 -15.362  0.3204E+00  0.1030E+01
 -15.352  0.3206E+00  0.1033E+01
 -15.342  0.3208E+00  0.1036E+01
 -15.332  0.3210E+00  0.1040E+01
 -15.322  0.3213E+00  0.1043E+01
 -15.312  0.3215E+00  0.1046E+01
 -15.302  0.3187E+00  0.1049E+01
 -15.292  0.3152E+00  0.1052E+01
 -15.282  0.3125E+00  0.1055E+01
 -15.272  0.3098E+00  0.1059E+01
 -15.262  0.3091E+00  0.1062E+01
 -15.252  0.3095E+00  0.1065E+01
 -15.242  0.3097E+00  0.1068E+01
 -15.232  0.3100E+00  0.1071E+01
 -15.222  0.3103E+00  0.1074E+01
 -15.212  0.3105E+00  0.1077E+01
 -15.202  0.3108E+00  0.1080E+01
 -15.192  0.3110E+00  0.1083E+01
 -15.182  0.3113E+00  0.1087E+01
 -15.172  0.3116E+00  0.1090E+01
 -15.162  0.3118E+00  0.1093E+01
 -15.152  0.3121E+00  0.1096E+01
 -15.142  0.3124E+00  0.1099E+01
 -15.132  0.3127E+00  0.1102E+01
 -15.122  0.3130E+00  0.1105E+01
 -15.112  0.3133E+00  0.1108E+01
 -15.102  0.3136E+00  0.1112E+01
 -15.092  0.3139E+00  0.1115E+01
 -15.082  0.3143E+00  0.1118E+01
 -15.072  0.3146E+00  0.1121E+01
 -15.062  0.3149E+00  0.1124E+01
 -15.052  0.3153E+00  0.1127E+01
 -15.042  0.3156E+00  0.1130E+01
 -15.032  0.3160E+00  0.1134E+01
 -15.022  0.3164E+00  0.1137E+01
 -15.012  0.3167E+00  0.1140E+01
 -15.002  0.3171E+00  0.1143E+01
 -14.992  0.3175E+00  0.1146E+01
 -14.982  0.3179E+00  0.1149E+01
 -14.972  0.3183E+00  0.1153E+01
 -14.962  0.3187E+00  0.1156E+01
 -14.952  0.3191E+00  0.1159E+01
 -14.942  0.3195E+00  0.1162E+01
 -14.932  0.3199E+00  0.1165E+01
 -14.922  0.3203E+00  0.1169E+01
 -14.912  0.3208E+00  0.1172E+01
 -14.902  0.3212E+00  0.1175E+01
 -14.892  0.3217E+00  0.1178E+01
 -14.882  0.3221E+00  0.1181E+01
 -14.872  0.3226E+00  0.1185E+01
 -14.862  0.3230E+00  0.1188E+01
 -14.852  0.3235E+00  0.1191E+01
 -14.842  0.3240E+00  0.1194E+01
 -14.832  0.3245E+00  0.1198E+01
 -14.822  0.3250E+00  0.1201E+01
 -14.812  0.3255E+00  0.1204E+01
 -14.802  0.3260E+00  0.1207E+01
 -14.792  0.3265E+00  0.1211E+01
 -14.782  0.3270E+00  0.1214E+01
 -14.772  0.3275E+00  0.1217E+01
 -14.762  0.3280E+00  0.1220E+01
 -14.752  0.3286E+00  0.1224E+01
 -14.742  0.3291E+00  0.1227E+01
 -14.732  0.3296E+00  0.1230E+01
 -14.722  0.3302E+00  0.1234E+01
 -14.712  0.3308E+00  0.1237E+01
 -14.702  0.3314E+00  0.1240E+01
 -14.692  0.3308E+00  0.1243E+01
 -14.682  0.3284E+00  0.1247E+01
 -14.672  0.3263E+00  0.1250E+01
 -14.662  0.3256E+00  0.1253E+01
 -14.652  0.3250E+00  0.1257E+01
 -14.642  0.3243E+00  0.1260E+01
 -14.632  0.3237E+00  0.1263E+01
 -14.622  0.3237E+00  0.1266E+01
 -14.612  0.3244E+00  0.1270E+01
 -14.602  0.3252E+00  0.1273E+01
 -14.592  0.3259E+00  0.1276E+01
 -14.582  0.3266E+00  0.1279E+01
 -14.572  0.3273E+00  0.1283E+01
 -14.562  0.3280E+00  0.1286E+01
 -14.552  0.3287E+00  0.1289E+01
 -14.542  0.3294E+00  0.1292E+01
 -14.532  0.3301E+00  0.1296E+01
 -14.522  0.3307E+00  0.1299E+01
 -14.512  0.3314E+00  0.1302E+01
 -14.502  0.3321E+00  0.1306E+01
 -14.492  0.3327E+00  0.1309E+01
 -14.482  0.3334E+00  0.1312E+01
 -14.472  0.3341E+00  0.1316E+01
 -14.462  0.3348E+00  0.1319E+01
 -14.452  0.3355E+00  0.1322E+01
 -14.442  0.3362E+00  0.1326E+01
 -14.432  0.3369E+00  0.1329E+01
 -14.422  0.3376E+00  0.1332E+01
 -14.412  0.3383E+00  0.1336E+01
 -14.402  0.3389E+00  0.1339E+01
 -14.392  0.3390E+00  0.1343E+01
 -14.382  0.3356E+00  0.1346E+01
 -14.372  0.3263E+00  0.1349E+01
 -14.362  0.3176E+00  0.1352E+01
 -14.352  0.3119E+00  0.1356E+01
 -14.342  0.3163E+00  0.1359E+01
 -14.332  0.3215E+00  0.1362E+01
 -14.322  0.3260E+00  0.1365E+01
 -14.312  0.3300E+00  0.1368E+01
 -14.302  0.3334E+00  0.1372E+01
 -14.292  0.3362E+00  0.1375E+01
 -14.282  0.3384E+00  0.1379E+01
 -14.272  0.3402E+00  0.1382E+01
 -14.262  0.3422E+00  0.1385E+01
 -14.252  0.3453E+00  0.1389E+01
 -14.242  0.3474E+00  0.1392E+01
 -14.232  0.3383E+00  0.1396E+01
 -14.222  0.3295E+00  0.1399E+01
 -14.212  0.3268E+00  0.1402E+01
 -14.202  0.3245E+00  0.1406E+01
 -14.192  0.3222E+00  0.1409E+01
 -14.182  0.3199E+00  0.1412E+01
 -14.172  0.3196E+00  0.1415E+01
 -14.162  0.3215E+00  0.1418E+01
 -14.152  0.3233E+00  0.1422E+01
 -14.142  0.3251E+00  0.1425E+01
 -14.132  0.3268E+00  0.1428E+01
 -14.122  0.3286E+00  0.1431E+01
 -14.112  0.3303E+00  0.1435E+01
 -14.102  0.3320E+00  0.1438E+01
 -14.092  0.3336E+00  0.1441E+01
 -14.082  0.3353E+00  0.1445E+01
 -14.072  0.3369E+00  0.1448E+01
 -14.062  0.3385E+00  0.1451E+01
 -14.052  0.3402E+00  0.1455E+01
 -14.042  0.3418E+00  0.1458E+01
 -14.032  0.3435E+00  0.1462E+01
 -14.022  0.3452E+00  0.1465E+01
 -14.012  0.3470E+00  0.1469E+01
 -14.002  0.3488E+00  0.1472E+01
 -13.992  0.3506E+00  0.1475E+01
 -13.982  0.3524E+00  0.1479E+01
 -13.972  0.3543E+00  0.1483E+01
 -13.962  0.3562E+00  0.1486E+01
 -13.952  0.3581E+00  0.1490E+01
 -13.942  0.3601E+00  0.1493E+01
 -13.932  0.3621E+00  0.1497E+01
 -13.922  0.3641E+00  0.1500E+01
 -13.912  0.3661E+00  0.1504E+01
 -13.902  0.3682E+00  0.1508E+01
 -13.892  0.3703E+00  0.1512E+01
 -13.882  0.3724E+00  0.1515E+01
 -13.872  0.3746E+00  0.1519E+01
 -13.862  0.3767E+00  0.1523E+01
 -13.852  0.3790E+00  0.1526E+01
 -13.842  0.3812E+00  0.1530E+01
 -13.832  0.3835E+00  0.1534E+01
 -13.822  0.3858E+00  0.1538E+01
 -13.812  0.3883E+00  0.1542E+01
 -13.802  0.3887E+00  0.1546E+01
 -13.792  0.3840E+00  0.1550E+01
 -13.782  0.3786E+00  0.1553E+01
 -13.772  0.3732E+00  0.1557E+01
 -13.762  0.3677E+00  0.1561E+01
 -13.752  0.3627E+00  0.1565E+01
 -13.742  0.3599E+00  0.1568E+01
 -13.732  0.3577E+00  0.1572E+01
 -13.722  0.3559E+00  0.1575E+01
 -13.712  0.3677E+00  0.1579E+01
 -13.702  0.3995E+00  0.1583E+01
 -13.692  0.4440E+00  0.1587E+01
 -13.682  0.4834E+00  0.1592E+01
 -13.672  0.5170E+00  0.1597E+01
 -13.662  0.5446E+00  0.1602E+01
 -13.652  0.5665E+00  0.1607E+01
 -13.642  0.5902E+00  0.1613E+01
 -13.632  0.6115E+00  0.1619E+01
 -13.622  0.6262E+00  0.1625E+01
 -13.612  0.6342E+00  0.1632E+01
 -13.602  0.6356E+00  0.1638E+01
 -13.592  0.6303E+00  0.1644E+01
 -13.582  0.6195E+00  0.1651E+01
 -13.572  0.6080E+00  0.1657E+01
 -13.562  0.5963E+00  0.1663E+01
 -13.552  0.5844E+00  0.1669E+01
 -13.542  0.5722E+00  0.1675E+01
 -13.532  0.5599E+00  0.1680E+01
 -13.522  0.5474E+00  0.1686E+01
 -13.512  0.5347E+00  0.1691E+01
 -13.502  0.5218E+00  0.1696E+01
 -13.492  0.5088E+00  0.1702E+01
 -13.482  0.4955E+00  0.1707E+01
 -13.472  0.4820E+00  0.1711E+01
 -13.462  0.4683E+00  0.1716E+01
 -13.452  0.4544E+00  0.1721E+01
 -13.442  0.4403E+00  0.1725E+01
 -13.432  0.4261E+00  0.1730E+01
 -13.422  0.4116E+00  0.1734E+01
 -13.412  0.3969E+00  0.1738E+01
 -13.402  0.3820E+00  0.1742E+01
 -13.392  0.3670E+00  0.1746E+01
 -13.382  0.3517E+00  0.1749E+01
 -13.372  0.3363E+00  0.1753E+01
 -13.362  0.3253E+00  0.1756E+01
 -13.352  0.3205E+00  0.1759E+01
 -13.342  0.3157E+00  0.1762E+01
 -13.332  0.3109E+00  0.1765E+01
 -13.322  0.3061E+00  0.1768E+01
 -13.312  0.3012E+00  0.1772E+01
 -13.302  0.2963E+00  0.1775E+01
 -13.292  0.2913E+00  0.1777E+01
 -13.282  0.2871E+00  0.1780E+01
 -13.272  0.2846E+00  0.1783E+01
 -13.262  0.2824E+00  0.1786E+01
 -13.252  0.2801E+00  0.1789E+01
 -13.242  0.2780E+00  0.1792E+01
 -13.232  0.2758E+00  0.1794E+01
 -13.222  0.2737E+00  0.1797E+01
 -13.212  0.2716E+00  0.1800E+01
 -13.202  0.2694E+00  0.1803E+01
 -13.192  0.2673E+00  0.1805E+01
 -13.182  0.2652E+00  0.1808E+01
 -13.172  0.2631E+00  0.1811E+01
 -13.162  0.2610E+00  0.1813E+01
 -13.152  0.2589E+00  0.1816E+01
 -13.142  0.2567E+00  0.1818E+01
 -13.132  0.2546E+00  0.1821E+01
 -13.122  0.2524E+00  0.1823E+01
 -13.112  0.2502E+00  0.1826E+01
 -13.102  0.2481E+00  0.1828E+01
 -13.092  0.2459E+00  0.1831E+01
 -13.082  0.2437E+00  0.1833E+01
 -13.072  0.2415E+00  0.1836E+01
 -13.062  0.2393E+00  0.1838E+01
 -13.052  0.2371E+00  0.1841E+01
 -13.042  0.2348E+00  0.1843E+01
 -13.032  0.2326E+00  0.1845E+01
 -13.022  0.2303E+00  0.1848E+01
 -13.012  0.2281E+00  0.1850E+01
 -13.002  0.2258E+00  0.1852E+01
 -12.992  0.2235E+00  0.1854E+01
 -12.982  0.2212E+00  0.1857E+01
 -12.972  0.2189E+00  0.1859E+01
 -12.962  0.2166E+00  0.1861E+01
 -12.952  0.2143E+00  0.1863E+01
 -12.942  0.2174E+00  0.1865E+01
 -12.932  0.2418E+00  0.1868E+01
 -12.922  0.2684E+00  0.1870E+01
 -12.912  0.2841E+00  0.1873E+01
 -12.902  0.3052E+00  0.1876E+01
 -12.892  0.3662E+00  0.1879E+01
 -12.882  0.4289E+00  0.1883E+01
 -12.872  0.4853E+00  0.1888E+01
 -12.862  0.5467E+00  0.1893E+01
 -12.852  0.5658E+00  0.1899E+01
 -12.842  0.5203E+00  0.1904E+01
 -12.832  0.4471E+00  0.1909E+01
 -12.822  0.3794E+00  0.1913E+01
 -12.812  0.3136E+00  0.1916E+01
 -12.802  0.2485E+00  0.1919E+01
 -12.792  0.1842E+00  0.1921E+01
 -12.782  0.1581E+00  0.1923E+01
 -12.772  0.1375E+00  0.1925E+01
 -12.762  0.1220E+00  0.1926E+01
 -12.752  0.1116E+00  0.1927E+01
 -12.742  0.1062E+00  0.1928E+01
 -12.732  0.1054E+00  0.1929E+01
 -12.722  0.1053E+00  0.1930E+01
 -12.712  0.1048E+00  0.1931E+01
 -12.702  0.1043E+00  0.1932E+01
 -12.692  0.1038E+00  0.1933E+01
 -12.682  0.1032E+00  0.1934E+01
 -12.672  0.1027E+00  0.1935E+01
 -12.662  0.1021E+00  0.1936E+01
 -12.652  0.1016E+00  0.1937E+01
 -12.642  0.1010E+00  0.1939E+01
 -12.632  0.1005E+00  0.1940E+01
 -12.622  0.9990E-01  0.1941E+01
